time (s)	coil I (A)	last det (V)	int current (uC)
7372.314630	0.905416	0.315709	428.261871
7372.315520	1.323102	0.315709	1605.822510
7372.316486	1.329771	0.315709	2890.380859
7372.317439	1.300756	0.315709	4130.000977
7372.318371	1.271287	0.315709	5314.839844
7372.319239	1.244030	0.315709	6394.657227
7372.320285	1.213103	0.315709	7663.562988
7372.321194	0.897312	0.315709	8479.219727
7372.322070	0.126281	0.315709	8589.841797
7372.322983	0.083822	0.315709	8666.371094
7372.323991	0.083818	0.315709	8750.860352
7372.324912	0.083888	0.315709	8828.121094
7372.325768	0.083822	0.315709	8899.873047
7372.326833	0.083928	0.315709	8989.256836
7372.327746	0.083892	0.315709	9065.849609
7372.328667	0.083954	0.315709	9143.170898
7372.329530	0.083932	0.315709	9215.604492
7372.330580	0.083862	0.315709	9303.660156
7373.349895	0.914927	0.335963	456.548462
7373.350803	1.325186	0.335963	1659.816895
7373.351672	1.330920	0.335963	2816.386719
7373.352759	1.298602	0.335963	4227.967285
7373.353762	1.266445	0.335963	5498.211914
7373.354653	1.239053	0.335963	6602.208008
7373.355628	1.210111	0.335963	7782.066406
7373.356703	0.608364	0.335963	8436.057617
7373.357608	0.090557	0.335963	8518.011719
7373.358471	0.083903	0.335963	8590.419922
7373.359559	0.084005	0.335963	8681.817383
7373.360518	0.083917	0.335963	8762.293945
7373.361396	0.083943	0.335963	8835.996094
7373.362413	0.083965	0.335963	8921.388672
7373.363449	0.083939	0.335963	9008.349609
7373.364331	0.083895	0.335963	9082.345703
7373.365212	0.083921	0.335963	9156.280273
7373.366297	0.084042	0.335963	9247.465820
7374.375868	0.852488	0.331105	363.159790
7374.376818	1.318147	0.331105	1615.399414
7374.377730	1.331195	0.331105	2829.449219
7374.378652	1.303718	0.331105	4031.477539
7374.379529	1.275128	0.331105	5149.764648
7374.380509	1.244931	0.331105	6369.796387
7374.381448	1.216267	0.331105	7511.871094
7374.382375	1.004872	0.331105	8443.386719
7374.383242	0.161283	0.331105	8583.218750
7374.384220	0.083844	0.331105	8665.217773
7374.385170	0.083881	0.331105	8744.904297
7374.386039	0.084009	0.331105	8817.908203
7374.386913	0.083899	0.331105	8891.236328
7374.387881	0.083881	0.331105	8972.432617
7374.388800	0.083921	0.331105	9049.555664
7374.389662	0.083800	0.331105	9121.791016
7374.390652	0.083928	0.331105	9204.879883
7374.391595	0.083895	0.331105	9283.993164
7375.413720	0.872571	0.324692	384.803741
7375.414586	1.316906	0.324692	1525.244019
7375.415644	1.329192	0.324692	2931.529053
7375.416682	1.297672	0.324692	4278.512695
7375.417564	1.269031	0.324692	5397.797852
7375.418511	1.240031	0.324692	6572.106934
7375.419581	1.207870	0.324692	7864.527832
7375.420524	0.666057	0.324692	8492.620117
7375.421385	0.096724	0.324692	8575.899414
7375.422440	0.083877	0.324692	8664.389648
7375.423458	0.083917	0.324692	8749.817383
7375.424328	0.083899	0.324692	8822.809570
7375.425296	0.083972	0.324692	8904.094727
7375.426344	0.084064	0.324692	8992.193359
7375.427271	0.084064	0.324692	9070.120117
7375.428143	0.084031	0.324692	9143.394531
7375.429216	0.084078	0.324692	9233.610352
7375.430209	0.084031	0.324692	9317.052734
7376.441325	0.887307	0.317119	416.147064
7376.442213	1.321073	0.317119	1589.260010
7376.443081	1.332400	0.317119	2745.783203
7376.444051	1.304561	0.317119	4011.207031
7376.444973	1.273857	0.317119	5185.703613
7376.445903	1.245341	0.317119	6343.870117
7376.446769	1.218596	0.317119	7399.174316
7376.447745	1.024145	0.317119	8398.740234
7376.448695	0.159115	0.317119	8549.899414
7376.449576	0.083800	0.317119	8623.727539
7376.450475	0.083822	0.317119	8699.083984
7376.451406	0.083811	0.317119	8777.112305
7376.452364	0.083855	0.317119	8857.445312
7376.453250	0.083859	0.317119	8931.744141
7376.454156	0.083785	0.317119	9007.653320
7376.455119	0.083910	0.317119	9088.458984
7376.456044	0.083866	0.317119	9166.035156
7376.456910	0.083877	0.317119	9238.672852
7377.475636	0.935998	0.315141	512.927185
7377.476666	1.332557	0.315141	1885.461426
7377.477548	1.326804	0.315141	3055.702637
7377.478420	1.298489	0.315141	4187.984863
7377.479514	1.264845	0.315141	5571.725098
7377.480441	1.236134	0.315141	6717.621094
7377.481319	1.209917	0.315141	7779.928223
7377.482308	0.698145	0.315141	8470.393555
7377.483315	0.090630	0.315141	8561.658203
7377.484202	0.083848	0.315141	8636.031250
7377.485063	0.083972	0.315141	8708.331055
7377.486146	0.083976	0.315141	8799.277344
7377.487062	0.083837	0.315141	8876.071289
7377.487937	0.084001	0.315141	8949.572266
7377.488928	0.083987	0.315141	9032.802734
7377.489935	0.083954	0.315141	9117.344727
7377.490811	0.083950	0.315141	9190.884766
7377.491667	0.083965	0.315141	9262.758789
7378.505205	0.916362	0.308716	437.104828
7378.506093	1.321560	0.308716	1610.650146
7378.506955	1.331968	0.308716	2758.806152
7378.507917	1.303495	0.308716	4012.768066
7378.508895	1.272609	0.308716	5257.379395
7378.509793	1.244868	0.308716	6375.270996
7378.510712	1.217267	0.308716	7493.939453
7378.511672	0.980658	0.308716	8435.371094
7378.512608	0.137714	0.308716	8564.271484
7378.513481	0.083818	0.308716	8637.445312
7378.514430	0.083862	0.308716	8717.030273
7378.515363	0.083837	0.308716	8795.250000
7378.516296	0.083950	0.308716	8873.575195
7378.517156	0.083892	0.308716	8945.721680
7378.518128	0.083892	0.308716	9027.264648
7378.519076	0.083921	0.308716	9106.821289
7378.519946	0.083848	0.308716	9179.768555
7378.520855	0.083961	0.308716	9256.088867
7379.538369	0.854890	0.313594	365.892975
7379.539232	1.315009	0.313594	1500.745239
7379.540252	1.330880	0.313594	2858.243164
7379.541180	1.302949	0.313594	4067.379883
7379.542051	1.274462	0.313594	5177.436035
7379.543075	1.243055	0.313594	6450.324707
7379.543964	1.215835	0.313594	7531.202148
7379.544873	0.988575	0.313594	8429.817383
7379.545760	0.153809	0.313594	8566.246094
7379.546743	0.083789	0.313594	8648.610352
7379.547666	0.083892	0.313594	8726.041992
7379.548546	0.083914	0.313594	8799.885742
7379.549573	0.083899	0.313594	8886.049805
7379.550468	0.083903	0.313594	8961.142578
7379.551391	0.083818	0.313594	9038.506836
7379.552257	0.083862	0.313594	9111.131836
7379.553220	0.083870	0.313594	9191.898437
7379.554176	0.083800	0.313594	9272.011719
7380.568606	0.926924	0.313356	473.658112
7380.569628	1.331528	0.313356	1834.479980
7380.570516	1.327855	0.313356	3013.615479
7380.571504	1.297577	0.313356	4295.621582
7380.572556	1.263816	0.313356	5625.155762
7380.573468	1.235533	0.313356	6751.961914
7380.574332	1.208686	0.313356	7796.267090
7380.575431	0.578749	0.313356	8432.312500
7380.576431	0.087327	0.313356	8519.638672
7380.577307	0.083848	0.313356	8593.088867
7380.578324	0.083954	0.313356	8678.469727
7380.579383	0.083958	0.313356	8767.380859
7380.580247	0.083851	0.313356	8839.828125
7380.581123	0.083917	0.313356	8913.339844
7380.582231	0.083987	0.313356	9006.397461
7380.583190	0.083921	0.313356	9086.877930
7380.584066	0.083990	0.313356	9160.453125
7380.585081	0.083925	0.313356	9245.636719
7381.601223	0.862412	0.316974	372.562042
7381.602098	1.316678	0.316974	1524.655640
7381.603021	1.332477	0.316974	2754.531738
7381.603988	1.304249	0.316974	4015.740723
7381.604923	1.274033	0.316974	5206.961914
7381.605802	1.246344	0.316974	6302.498047
7381.606784	1.216271	0.316974	7496.875977
7381.607748	0.950914	0.316974	8413.557617
7381.608687	0.132803	0.316974	8538.259766
7381.609548	0.083763	0.316974	8610.379883
7381.610516	0.083881	0.316974	8691.576172
7381.611444	0.083822	0.316974	8769.363281
7381.612301	0.083914	0.316974	8841.277344
7381.613243	0.083921	0.316974	8920.331055
7381.614172	0.083822	0.316974	8998.202148
7381.615087	0.083881	0.316974	9074.953125
7381.615947	0.083881	0.316974	9147.090820
7381.616926	0.083862	0.316974	9229.192383
7382.630843	0.849137	0.325200	358.335815
7382.631832	1.319736	0.325200	1663.555054
7382.632831	1.328145	0.325200	2990.371582
7382.633719	1.300719	0.325200	4145.410156
7382.634580	1.272272	0.325200	5240.835937
7382.635672	1.239668	0.325200	6594.553223
7382.636579	1.212081	0.325200	7693.911133
7382.637453	0.909375	0.325200	8488.705078
7382.638445	0.123223	0.325200	8610.942383
7382.639451	0.083741	0.325200	8695.186523
7382.640342	0.083947	0.325200	8769.982422
7382.641208	0.083936	0.325200	8842.670898
7382.642287	0.083906	0.325200	8933.206055
7382.643220	0.083888	0.325200	9011.473633
7382.644097	0.083910	0.325200	9085.062500
7382.645067	0.083965	0.325200	9166.508789
7382.646077	0.083958	0.325200	9251.305664
7382.646966	0.083928	0.325200	9325.917969
7383.665600	0.850042	0.314142	365.517853
7383.666469	1.314998	0.314142	1508.250732
7383.667393	1.332191	0.314142	2739.195312
7383.668362	1.303678	0.314142	4002.459473
7383.669297	1.274048	0.314142	5193.694336
7383.670167	1.246381	0.314142	6278.045410
7383.671148	1.217428	0.314142	7472.342285
7383.672086	1.019978	0.314142	8429.082031
7383.672953	0.167882	0.314142	8574.635742
7383.673937	0.083855	0.314142	8657.149414
7383.674844	0.083877	0.314142	8733.225586
7383.675759	0.083976	0.314142	8810.063477
7383.676634	0.083888	0.314142	8883.465820
7383.677607	0.083811	0.314142	8965.013672
7383.678560	0.083851	0.314142	9044.923828
7383.679451	0.083855	0.314142	9119.638672
7383.680363	0.083851	0.314142	9196.111328
7383.681319	0.083914	0.314142	9276.333008
7384.694717	0.855868	0.324753	363.743866
7384.695773	1.326519	0.324753	1764.547607
7384.696651	1.329269	0.324753	2931.645508
7384.697529	1.302532	0.324753	4075.268311
7384.698474	1.272458	0.324753	5277.741699
7384.699452	1.241928	0.324753	6492.346680
7384.700371	1.214352	0.324753	7608.335937
7384.701250	0.978563	0.324753	8468.493164
7384.702299	0.121414	0.324753	8595.856445
7384.703207	0.083741	0.324753	8671.893555
7384.704126	0.083859	0.324753	8748.959961
7384.704989	0.083873	0.324753	8821.342773
7384.705997	0.083866	0.324753	8905.879883
7384.706917	0.083840	0.324753	8983.012695
7384.707790	0.083903	0.324753	9056.259766
7384.708759	0.083906	0.324753	9137.564453
7384.709674	0.083881	0.324753	9214.315430
7384.710586	0.083877	0.324753	9290.811523
7385.727506	0.895770	0.319745	456.842834
7385.728572	1.331459	0.319745	1876.177734
7385.729513	1.325376	0.319745	3123.356445
7385.730377	1.297482	0.319745	4244.380859
7385.731457	1.263702	0.319745	5609.179687
7385.732477	1.232226	0.319745	6866.050781
7385.733362	1.205760	0.319745	7933.148926
7385.734359	0.563306	0.319745	8494.764648
7385.735403	0.086880	0.319745	8585.466797
7385.736307	0.083789	0.319745	8661.211914
7385.737162	0.083928	0.319745	8732.970703
7385.738246	0.083939	0.319745	8823.960937
7385.739232	0.083873	0.319745	8906.660156
7385.740109	0.083906	0.319745	8980.246094
7385.741104	0.083939	0.319745	9063.765625
7385.742152	0.083928	0.319745	9151.722656
7385.743058	0.083870	0.319745	9227.708984
7385.743923	0.083947	0.319745	9300.322266
7386.758076	0.851726	0.328789	363.687012
7386.759041	1.322465	0.328789	1639.865356
7386.759956	1.330140	0.328789	2856.943848
7386.760885	1.302426	0.328789	4066.896973
7386.761764	1.273484	0.328789	5186.289062
7386.762773	1.243052	0.328789	6440.528320
7386.763695	1.215418	0.328789	7561.143555
7386.764581	1.004608	0.328789	8451.226562
7386.765501	0.159404	0.328789	8597.878906
7386.766427	0.083694	0.328789	8675.379883
7386.767381	0.083855	0.328789	8755.377930
7386.768255	0.083815	0.328789	8828.631836
7386.769184	0.083811	0.328789	8906.492187
7386.770110	0.083829	0.328789	8984.118164
7386.771032	0.083804	0.328789	9061.384766
7386.771912	0.083793	0.328789	9135.122070
7386.772862	0.083789	0.328789	9214.721680
7386.773792	0.083800	0.328789	9292.655273
7387.790902	0.953079	0.316128	523.240112
7387.791965	1.332843	0.316128	1940.052124
7387.792866	1.325358	0.316128	3134.199219
7387.793735	1.296416	0.316128	4260.784668
7387.794853	1.262285	0.316128	5672.019531
7387.795811	1.233058	0.316128	6853.289062
7387.796678	1.207152	0.316128	7899.889648
7387.797730	0.535983	0.316128	8463.743164
7387.798747	0.086587	0.316128	8551.801758
7387.799629	0.083877	0.316128	8625.781250
7387.800560	0.083859	0.316128	8703.853516
7387.801624	0.083921	0.316128	8793.145508
7387.802575	0.083848	0.316128	8872.884766
7387.803433	0.083899	0.316128	8944.870117
7387.804481	0.083936	0.316128	9032.834961
7387.805510	0.083851	0.316128	9119.118164
7387.806384	0.083789	0.316128	9192.349609
7387.807343	0.083870	0.316128	9272.780273
7388.820941	0.873018	0.327093	384.127747
7388.821819	1.316887	0.327093	1540.354736
7388.822752	1.331389	0.327093	2782.541016
7388.823728	1.303055	0.327093	4054.323242
7388.824656	1.273330	0.327093	5235.973633
7388.825522	1.245619	0.327093	6314.679687
7388.826483	1.216893	0.327093	7484.114258
7388.827431	0.987612	0.327093	8420.371094
7388.828327	0.151622	0.327093	8556.224609
7388.829249	0.083822	0.327093	8633.508789
7388.830169	0.083866	0.327093	8710.665039
7388.831094	0.083811	0.327093	8788.190430
7388.831956	0.083833	0.327093	8860.454102
7388.832922	0.083793	0.327093	8941.397461
7388.833872	0.083921	0.327093	9021.122070
7388.834766	0.083950	0.327093	9096.173828
7388.835694	0.083903	0.327093	9174.035156
7388.836646	0.083895	0.327093	9253.903320
7389.853113	0.847222	0.313800	356.680328
7389.854008	1.315177	0.313800	1533.763794
7389.855134	1.327698	0.313800	3028.751465
7389.856023	1.299466	0.313800	4183.977051
7389.856893	1.271675	0.313800	5290.333984
7389.857937	1.239448	0.313800	6584.317871
7389.858901	1.210558	0.313800	7751.295898
7389.859785	0.847028	0.313800	8500.068359
7389.860643	0.117275	0.313800	8600.690430
7389.861746	0.083844	0.313800	8693.169922
7389.862626	0.083848	0.313800	8766.956055
7389.863491	0.083881	0.313800	8839.512695
7389.864579	0.083866	0.313800	8930.758789
7389.865551	0.083807	0.313800	9012.219727
7389.866426	0.083848	0.313800	9085.585937
7389.867292	0.083888	0.313800	9158.232422
7389.868395	0.083895	0.313800	9250.768555
7389.869305	0.083866	0.313800	9327.086914
7390.887379	0.871567	0.318227	389.590637
7390.888256	1.317883	0.318227	1545.374268
7390.889173	1.332239	0.318227	2767.037109
7390.890146	1.304114	0.318227	4035.939941
7390.891076	1.273843	0.318227	5220.613770
7390.891943	1.246370	0.318227	6301.216309
7390.892855	1.217988	0.318227	7412.021484
7390.893825	0.999020	0.318227	8381.070312
7390.894760	0.153750	0.318227	8524.826172
7390.895638	0.083840	0.318227	8598.437500
7390.896604	0.083829	0.318227	8679.416992
7390.897558	0.083800	0.318227	8759.362305
7390.898443	0.083870	0.318227	8833.586914
7390.899304	0.083903	0.318227	8905.827148
7390.900272	0.083829	0.318227	8986.973633
7390.901207	0.083837	0.318227	9065.361328
7390.902068	0.083804	0.318227	9137.516602
7390.903043	0.083848	0.318227	9219.267578
7391.915023	0.914099	0.309304	450.650848
7391.915906	1.322135	0.309304	1618.096069
7391.916776	1.331884	0.309304	2776.834717
7391.917734	1.303345	0.309304	4025.438965
7391.918719	1.271748	0.309304	5278.110840
7391.919643	1.243246	0.309304	6426.870117
7391.920523	1.216626	0.309304	7497.500977
7391.921567	0.898879	0.309304	8435.930664
7391.922467	0.121201	0.309304	8545.011719
7391.923339	0.083782	0.309304	8618.069336
7391.924217	0.083910	0.309304	8691.742187
7391.925248	0.083862	0.309304	8778.204102
7391.926135	0.083837	0.309304	8852.567383
7391.927002	0.083954	0.309304	8925.355469
7391.927984	0.083866	0.309304	9007.711914
7391.928893	0.083884	0.309304	9083.962891
7391.929817	0.083873	0.309304	9161.461914
7391.930697	0.083892	0.309304	9235.286133
7392.952760	0.843988	0.319882	355.318939
7392.953771	1.321359	0.319882	1691.212646
7392.954829	1.326387	0.319882	3094.529785
7392.955720	1.297782	0.319882	4250.853516
7392.956592	1.268881	0.319882	5357.317383
7392.957693	1.235991	0.319882	6718.143555
7392.958651	1.207584	0.319882	7875.009277
7392.959518	0.749531	0.319882	8524.852539
7392.960558	0.094702	0.319882	8623.342773
7392.961581	0.083866	0.319882	8709.137695
7392.962463	0.083895	0.319882	8783.133789
7392.963389	0.083928	0.319882	8860.851562
7392.964470	0.083950	0.319882	8951.601562
7392.965414	0.083958	0.319882	9030.857422
7392.966275	0.083881	0.319882	9103.079102
7392.967303	0.083928	0.319882	9189.357422
7392.968317	0.083917	0.319882	9274.449219
7392.969206	0.083899	0.319882	9349.035156
7393.975261	0.874695	0.317457	390.988586
7393.976139	1.317448	0.317457	1547.707520
7393.977008	1.333180	0.317457	2706.240723
7393.977946	1.305908	0.317457	3931.182617
7393.978876	1.275337	0.317457	5117.246094
7393.979803	1.246692	0.317457	6272.929687
7393.980681	1.220240	0.317457	7344.300781
7393.981594	1.092257	0.317457	8341.531250
7393.982572	0.188811	0.317457	8526.188477
7393.983496	0.083782	0.317457	8603.602539
7393.984365	0.083895	0.317457	8676.507812
7393.985340	0.083899	0.317457	8758.309570
7393.986261	0.083815	0.317457	8835.502930
7393.987189	0.083811	0.317457	8913.279297
7393.988046	0.083859	0.317457	8985.146484
7393.989004	0.083895	0.317457	9065.518555
7393.989928	0.083895	0.317457	9143.038086
7393.990808	0.083910	0.317457	9216.878906
7395.022265	0.847463	0.315778	356.782074
7395.023204	1.315569	0.315778	1592.101196
7395.024286	1.326731	0.315778	3027.624023
7395.025229	1.297625	0.315778	4251.284180
7395.026099	1.269185	0.315778	5355.474609
7395.027176	1.236551	0.315778	6687.240234
7395.028189	1.206083	0.315778	7909.001953
7395.029085	0.674539	0.315778	8513.388672
7395.030066	0.095339	0.315778	8606.916992
7395.031109	0.083785	0.315778	8694.304687
7395.032022	0.083848	0.315778	8770.857422
7395.032884	0.083870	0.315778	8843.153320
7395.033972	0.083903	0.315778	8934.439453
7395.034958	0.083844	0.315778	9017.109375
7395.035847	0.083826	0.315778	9091.630859
7395.036849	0.083925	0.315778	9175.723633
7395.037888	0.083921	0.315778	9262.916992
7395.038784	0.083829	0.315778	9338.028320
7396.037568	0.850239	0.315081	363.052155
7396.038509	1.320472	0.315081	1605.616577
7396.039483	1.329511	0.315081	2900.559814
7396.040408	1.301576	0.315081	4104.517578
7396.041273	1.272935	0.315081	5205.605957
7396.042242	1.243286	0.315081	6410.350098
7396.043202	1.214722	0.315081	7576.482910
7396.044102	0.974257	0.315081	8453.313477
7396.045032	0.145891	0.315081	8588.992187
7396.045973	0.083881	0.315081	8667.923828
7396.046877	0.083888	0.315081	8743.758789
7396.047737	0.083870	0.315081	8815.886719
7396.048708	0.083895	0.315081	8897.348633
7396.049663	0.083870	0.315081	8977.444336
7396.050549	0.083888	0.315081	9051.769531
7396.051474	0.083866	0.315081	9129.345703
7396.052409	0.083884	0.315081	9207.777344
7396.053339	0.083910	0.315081	9285.813477
7397.090827	0.915110	0.320777	462.130493
7397.091733	1.325149	0.320777	1662.715454
7397.092600	1.330745	0.320777	2816.471191
7397.093666	1.298712	0.320777	4200.898437
7397.094677	1.266636	0.320777	5481.467285
7397.095565	1.239258	0.320777	6581.928223
7397.096556	1.209778	0.320777	7780.818359
7397.097617	0.615970	0.320777	8434.363281
7397.098532	0.090765	0.320777	8517.414062
7397.099398	0.083866	0.320777	8590.041992
7397.100499	0.083972	0.320777	8682.495117
7397.101469	0.083888	0.320777	8763.866211
7397.102348	0.083892	0.320777	8837.606445
7397.103346	0.083888	0.320777	8921.326172
7397.104409	0.083925	0.320777	9010.538086
7397.105295	0.083855	0.320777	9084.833984
7397.106154	0.083826	0.320777	9156.839844
7397.107194	0.083914	0.320777	9244.110352
7398.094776	0.862335	0.339126	362.180786
7398.095745	1.321915	0.339126	1643.116699
7398.096676	1.329902	0.339126	2881.255859
7398.097572	1.302960	0.339126	4048.708252
7398.098495	1.273070	0.339126	5223.751953
7398.099462	1.243499	0.339126	6426.214844
7398.100383	1.215663	0.339126	7545.840332
7398.101266	1.021417	0.339126	8447.751953
7398.102222	0.145430	0.339126	8586.783203
7398.103154	0.083767	0.339126	8664.854492
7398.104084	0.083873	0.339126	8742.856445
7398.104942	0.083899	0.339126	8814.841797
7398.105923	0.083840	0.339126	8897.088867
7398.106876	0.083859	0.339126	8977.005859
7398.107750	0.083877	0.339126	9050.314453
7398.108663	0.083899	0.339126	9126.914062
7398.109613	0.083859	0.339126	9206.580078
7398.110540	0.083862	0.339126	9284.320312
7399.157741	0.898989	0.303672	424.322937
7399.158631	1.320923	0.303672	1599.944336
7399.159512	1.332034	0.303672	2773.465820
7399.160494	1.303429	0.303672	4053.433105
7399.161459	1.271917	0.303672	5280.832520
7399.162393	1.242927	0.303672	6441.726562
7399.163258	1.216567	0.303672	7494.057617
